SpectraSuite数据文件
++++++++++++++++++++++++++++++++++++
数据: Mon Jan 14 19:36:40 CST 2019
用户: 56283
暗光谱: 否
参考光谱: 否
光谱数量: 1
光谱仪: USB2+U18164
积分时间（微秒）: 100000 (USB2+U18164)
平均次数: 1 (USB2+U18164)
平滑度: 0 (USB2+U18164)
去除暗噪声: 否 (USB2+U18164)
使用脉冲信号/灯: 否 (USB2+U18164)
电子暗噪声校正: 否 (USB2+U18164)
杂散光校正: 否 (USB2+U18164)
光谱像素值: 2048
>>>>>Begin Processed Spectral Data<<<<<
340.59	313.63
340.96	313.63
341.34	313.63
341.71	215.33
342.08	241.08
342.46	294.91
342.83	252.78
343.21	205.97
343.58	266.82
343.95	245.76
344.33	245.76
344.70	271.50
345.08	269.16
345.45	290.23
345.82	376.83
346.20	372.15
346.57	374.49
346.95	386.19
347.32	435.34
347.69	465.77
348.07	484.49
348.44	428.32
348.81	458.74
349.19	456.40
349.56	505.56
349.93	512.58
350.31	468.11
350.68	585.13
351.06	514.92
351.43	589.82
351.80	599.18
352.18	627.26
352.55	624.92
352.92	620.24
353.29	678.76
353.67	608.54
354.04	636.63
354.41	655.35
354.79	624.92
355.16	620.24
355.53	601.52
355.91	660.03
356.28	657.69
356.65	692.80
357.03	678.76
357.40	671.73
357.77	671.73
358.14	657.69
358.52	627.26
358.89	638.97
359.26	671.73
359.63	571.09
360.01	744.29
360.38	634.29
360.75	664.71
361.13	669.39
361.50	624.92
361.87	599.18
362.24	606.20
362.61	627.26
362.99	585.13
363.36	660.03
363.73	552.37
364.10	606.20
364.48	655.35
364.85	655.35
365.22	606.20
365.59	629.60
365.97	601.52
366.34	638.97
366.71	624.92
367.08	596.84
367.45	578.11
367.83	582.79
368.20	613.22
368.57	645.99
368.94	606.20
369.31	629.60
369.68	622.58
370.06	547.69
370.43	589.82
370.80	517.26
371.17	557.05
371.54	599.18
371.91	615.56
372.29	571.09
372.66	606.20
373.03	601.52
373.40	596.84
373.77	622.58
374.14	580.45
374.52	564.07
374.89	627.26
375.26	674.07
375.63	615.56
376.00	594.50
376.37	568.75
376.74	566.41
377.11	601.52
377.49	671.73
377.86	592.16
378.23	648.33
378.60	643.65
378.97	655.35
379.34	643.65
379.71	624.92
380.08	636.63
380.45	669.39
380.82	678.76
381.19	610.88
381.57	589.82
381.94	613.22
382.31	547.69
382.68	655.35
383.05	634.29
383.42	692.80
383.79	660.03
384.16	629.60
384.53	594.50
384.90	638.97
385.27	650.67
385.64	645.99
386.01	587.47
386.38	674.07
386.75	587.47
387.12	627.26
387.49	603.86
387.86	585.13
388.23	627.26
388.60	648.33
388.97	585.13
389.34	667.05
389.71	643.65
390.08	559.39
390.45	645.99
390.82	638.97
391.19	695.14
391.56	636.63
391.93	622.58
392.30	664.71
392.67	636.63
393.04	596.84
393.41	617.90
393.78	655.35
394.15	566.41
394.52	643.65
394.89	648.33
395.26	601.52
395.63	638.97
396.00	667.05
396.37	629.60
396.74	627.26
397.11	655.35
397.48	615.56
397.85	615.56
398.22	620.24
398.58	615.56
398.95	606.20
399.32	599.18
399.69	610.88
400.06	624.92
400.43	669.39
400.80	622.58
401.17	620.24
401.54	601.52
401.91	528.96
402.28	603.86
402.64	648.33
403.01	606.20
403.38	645.99
403.75	559.39
404.12	627.26
404.49	667.05
404.86	664.71
405.23	592.16
405.59	638.97
405.96	629.60
406.33	585.13
406.70	622.58
407.07	564.07
407.44	638.97
407.80	638.97
408.17	681.10
408.54	643.65
408.91	629.60
409.28	585.13
409.65	648.33
410.01	580.45
410.38	660.03
410.75	613.22
411.12	620.24
411.49	599.18
411.85	622.58
412.22	725.57
412.59	592.16
412.96	634.29
413.33	580.45
413.69	627.26
414.06	613.22
414.43	601.52
414.80	629.60
415.17	622.58
415.53	678.76
415.90	629.60
416.27	608.54
416.64	634.29
417.00	610.88
417.37	641.31
417.74	599.18
418.11	610.88
418.47	681.10
418.84	613.22
419.21	648.33
419.58	655.35
419.94	620.24
420.31	720.88
420.68	627.26
421.04	645.99
421.41	622.58
421.78	533.64
422.15	564.07
422.51	568.75
422.88	645.99
423.25	587.47
423.61	643.65
423.98	606.20
424.35	617.90
424.71	638.97
425.08	613.22
425.45	554.71
425.81	610.88
426.18	596.84
426.55	627.26
426.91	578.11
427.28	580.45
427.65	596.84
428.01	617.90
428.38	662.37
428.75	599.18
429.11	622.58
429.48	695.14
429.85	662.37
430.21	587.47
430.58	566.41
430.95	669.39
431.31	589.82
431.68	564.07
432.04	653.01
432.41	610.88
432.78	660.03
433.14	629.60
433.51	655.35
433.87	568.75
434.24	653.01
434.61	636.63
434.97	650.67
435.34	653.01
435.70	667.05
436.07	676.41
436.44	706.84
436.80	634.29
437.17	627.26
437.53	695.14
437.90	648.33
438.26	638.97
438.63	638.97
438.99	624.92
439.36	550.03
439.73	606.20
440.09	681.10
440.46	629.60
440.82	596.84
441.19	674.07
441.55	606.20
441.92	643.65
442.28	608.54
442.65	681.10
443.01	664.71
443.38	575.77
443.74	655.35
444.11	603.86
444.47	650.67
444.84	599.18
445.20	662.37
445.57	660.03
445.93	650.67
446.30	627.26
446.66	660.03
447.03	564.07
447.39	699.82
447.76	650.67
448.12	676.41
448.49	610.88
448.85	585.13
449.21	636.63
449.58	547.69
449.94	631.94
450.31	638.97
450.67	624.92
451.04	709.18
451.40	638.97
451.76	655.35
452.13	631.94
452.49	610.88
452.86	641.31
453.22	681.10
453.59	636.63
453.95	589.82
454.31	599.18
454.68	582.79
455.04	627.26
455.41	634.29
455.77	688.12
456.13	615.56
456.50	657.69
456.86	638.97
457.22	655.35
457.59	592.16
457.95	638.97
458.32	667.05
458.68	660.03
459.04	603.86
459.41	592.16
459.77	711.52
460.13	671.73
460.50	683.44
460.86	653.01
461.22	730.25
461.59	645.99
461.95	650.67
462.31	706.84
462.68	674.07
463.04	709.18
463.40	631.94
463.77	706.84
464.13	660.03
464.49	655.35
464.86	683.44
465.22	655.35
465.58	667.05
465.94	667.05
466.31	667.05
466.67	638.97
467.03	683.44
467.40	671.73
467.76	748.97
468.12	716.20
468.48	678.76
468.85	697.48
469.21	660.03
469.57	667.05
469.93	692.80
470.30	709.18
470.66	671.73
471.02	660.03
471.38	720.88
471.75	713.86
472.11	739.61
472.47	723.23
472.83	669.39
473.19	674.07
473.56	706.84
473.92	681.10
474.28	702.16
474.64	681.10
475.00	704.50
475.37	683.44
475.73	739.61
476.09	711.52
476.45	713.86
476.81	767.70
477.18	704.50
477.54	645.99
477.90	706.84
478.26	678.76
478.62	732.59
478.98	676.41
479.35	746.63
479.71	678.76
480.07	690.46
480.43	669.39
480.79	744.29
481.15	695.14
481.51	664.71
481.88	755.99
482.24	716.20
482.60	739.61
482.96	800.46
483.32	868.34
483.68	816.85
484.04	847.27
484.40	847.27
484.77	870.68
485.13	915.15
485.49	957.28
485.85	1006.43
486.21	1062.60
486.57	1064.94
486.93	1029.84
487.29	1097.71
487.65	1048.56
488.01	1020.47
488.37	1050.90
488.73	1043.88
489.09	1071.97
489.46	1055.58
489.82	1074.31
490.18	940.90
490.54	985.37
490.90	1039.20
491.26	987.71
491.62	994.73
491.98	999.41
492.34	954.94
492.70	936.21
493.06	929.19
493.42	844.93
493.78	891.74
494.14	945.58
494.50	940.90
494.86	835.57
495.22	915.15
495.58	912.81
495.94	905.79
496.30	887.06
496.66	809.83
497.02	847.27
497.38	842.59
497.74	826.21
498.10	793.44
498.46	774.72
498.82	765.36
499.18	833.23
499.54	802.80
499.90	699.82
500.26	800.46
500.61	713.86
500.97	772.38
501.33	704.50
501.69	760.67
502.05	709.18
502.41	772.38
502.77	716.20
503.13	748.97
503.49	718.54
503.85	800.46
504.21	697.48
504.57	716.20
504.92	704.50
505.28	685.78
505.64	664.71
506.00	695.14
506.36	741.95
506.72	730.25
507.08	702.16
507.44	709.18
507.80	739.61
508.15	758.33
508.51	667.05
508.87	685.78
509.23	711.52
509.59	678.76
509.95	683.44
510.31	695.14
510.66	706.84
511.02	723.23
511.38	704.50
511.74	676.41
512.10	695.14
512.45	683.44
512.81	681.10
513.17	671.73
513.53	741.95
513.89	697.48
514.25	732.59
514.60	716.20
514.96	781.74
515.32	720.88
515.68	748.97
516.04	704.50
516.39	748.97
516.75	720.88
517.11	709.18
517.47	657.69
517.82	706.84
518.18	683.44
518.54	653.01
518.90	746.63
519.25	702.16
519.61	732.59
519.97	739.61
520.33	713.86
520.68	638.97
521.04	681.10
521.40	706.84
521.76	704.50
522.11	678.76
522.47	1088.35
522.83	650.67
523.18	699.82
523.54	704.50
523.90	699.82
524.25	779.40
524.61	709.18
524.97	657.69
525.33	737.27
525.68	702.16
526.04	636.63
526.40	648.33
526.75	704.50
527.11	660.03
527.47	688.12
527.82	662.37
528.18	685.78
528.54	671.73
528.89	622.58
529.25	718.54
529.61	702.16
529.96	674.07
530.32	671.73
530.67	723.23
531.03	702.16
531.39	725.57
531.74	699.82
532.10	671.73
532.46	748.97
532.81	711.52
533.17	662.37
533.52	770.04
533.88	765.36
534.24	741.95
534.59	786.42
534.95	791.10
535.30	730.25
535.66	716.20
536.01	791.10
536.37	809.83
536.73	844.93
537.08	842.59
537.44	943.24
537.79	940.90
538.15	1053.24
538.50	1057.92
538.86	1116.44
539.21	1163.25
539.57	1313.04
539.92	1432.41
540.28	1657.10
540.64	1961.37
540.99	2207.13
541.35	2452.88
541.70	2888.22
542.06	3021.63
542.41	3262.71
542.77	3136.32
543.12	3201.85
543.48	3112.91
543.83	3129.30
544.19	3108.23
544.54	3218.24
544.90	3206.53
545.25	3269.73
545.60	3400.80
545.96	3861.88
546.31	4016.36
546.67	3691.02
547.02	3241.64
547.38	2602.68
547.73	2377.98
548.09	2225.85
548.44	2080.74
548.80	1944.99
549.15	1818.60
549.50	1657.10
549.86	1629.01
550.21	1542.41
550.57	1460.49
550.92	1392.62
551.27	1357.51
551.63	1270.91
551.98	1207.72
552.34	1231.12
552.69	1167.93
553.04	1062.60
553.40	1081.33
553.75	926.85
554.11	1001.75
554.46	926.85
554.81	882.38
555.17	861.32
555.52	828.55
555.87	828.55
556.23	770.04
556.58	772.38
556.93	713.86
557.29	802.80
557.64	760.67
558.00	723.23
558.35	746.63
558.70	814.51
559.05	781.74
559.41	809.83
559.76	706.84
560.11	746.63
560.47	791.10
560.82	741.95
561.17	744.29
561.53	669.39
561.88	760.67
562.23	681.10
562.59	676.41
562.94	737.27
563.29	723.23
563.64	765.36
564.00	688.12
564.35	739.61
564.70	697.48
565.05	695.14
565.41	594.50
565.76	627.26
566.11	695.14
566.46	650.67
566.82	688.12
567.17	695.14
567.52	655.35
567.87	667.05
568.23	674.07
568.58	739.61
568.93	723.23
569.28	657.69
569.63	660.03
569.99	706.84
570.34	741.95
570.69	709.18
571.04	688.12
571.39	622.58
571.75	655.35
572.10	692.80
572.45	732.59
572.80	720.88
573.15	702.16
573.50	706.84
573.86	690.46
574.21	730.25
574.56	713.86
574.91	737.27
575.26	727.91
575.61	781.74
575.96	730.25
576.32	809.83
576.67	856.64
577.02	971.32
577.37	1090.69
577.72	992.39
578.07	968.98
578.42	919.83
578.77	968.98
579.13	1111.75
579.48	1121.12
579.83	1090.69
580.18	1088.35
580.53	1053.24
580.88	1128.14
581.23	1139.84
581.58	997.07
581.93	1041.54
582.28	1109.41
582.63	1139.84
582.98	1130.48
583.33	1238.14
583.69	1205.38
584.04	1233.46
584.39	1233.46
584.74	1277.93
585.09	1188.99
585.44	1198.35
585.79	1123.46
586.14	1247.51
586.49	1193.67
586.84	1273.25
587.19	1303.68
587.54	1420.71
587.89	1331.76
588.24	1270.91
588.59	1179.63
588.94	1128.14
589.29	1123.46
589.64	1095.37
589.99	1046.22
590.34	985.37
590.69	994.73
591.04	1034.52
591.39	985.37
591.74	1046.22
592.09	1036.86
592.43	1011.11
592.78	1151.54
593.13	1196.01
593.48	1249.85
593.83	1057.92
594.18	1062.60
594.53	1060.26
594.88	1022.81
595.23	973.66
595.58	919.83
595.93	842.59
596.28	903.45
596.63	858.98
596.98	816.85
597.32	828.55
597.67	781.74
598.02	861.32
598.37	880.04
598.72	898.77
599.07	926.85
599.42	1018.13
599.77	1048.56
600.11	968.98
600.46	922.17
600.81	959.62
601.16	957.28
601.51	851.96
601.86	901.11
602.21	809.83
602.55	772.38
602.90	800.46
603.25	823.87
603.60	772.38
603.95	751.31
604.29	751.31
604.64	784.08
604.99	842.59
605.34	770.04
605.69	779.40
606.03	837.91
606.38	884.72
606.73	837.91
607.08	880.04
607.43	877.70
607.77	882.38
608.12	968.98
608.47	1041.54
608.82	1109.41
609.16	1256.87
609.51	1610.29
609.86	1804.55
610.21	2324.15
610.55	2918.65
610.90	3852.52
611.25	4596.81
611.60	5076.62
611.94	4975.98
612.29	4573.41
612.64	3840.82
612.99	3262.71
613.33	2843.75
613.68	2656.51
614.03	2441.18
614.37	2296.07
614.72	2073.71
615.07	2047.97
615.41	1816.26
615.76	1687.53
616.11	1516.67
616.45	1390.28
616.80	1259.21
617.15	1242.82
617.49	1149.20
617.84	1153.88
618.19	1064.94
618.53	1048.56
618.88	1013.45
619.23	1055.58
619.57	1132.82
619.92	1118.78
620.27	1078.99
620.61	1144.52
620.96	1156.22
621.30	1121.12
621.65	1057.92
622.00	1078.99
622.34	1088.35
622.69	1090.69
623.04	1125.80
623.38	1130.48
623.73	1060.26
624.07	1025.15
624.42	1109.41
624.76	1036.86
625.11	1053.24
625.46	1078.99
625.80	1081.33
626.15	1130.48
626.49	1057.92
626.84	1015.79
627.18	1055.58
627.53	1057.92
627.87	1011.11
628.22	1055.58
628.56	1018.13
628.91	994.73
629.26	1060.26
629.60	1001.75
629.95	1090.69
630.29	1078.99
630.64	1210.06
630.98	1200.69
631.33	1315.38
631.67	1181.97
632.02	1130.48
632.36	1076.65
632.71	957.28
633.05	861.32
633.39	816.85
633.74	777.06
634.08	739.61
634.43	732.59
634.77	758.33
635.12	732.59
635.46	695.14
635.81	767.70
636.15	688.12
636.50	732.59
636.84	739.61
637.18	744.29
637.53	730.25
637.87	692.80
638.22	725.57
638.56	730.25
638.91	650.67
639.25	713.86
639.59	697.48
639.94	657.69
640.28	655.35
640.62	725.57
640.97	631.94
641.31	723.23
641.66	681.10
642.00	697.48
642.34	683.44
642.69	753.65
643.03	650.67
643.37	770.04
643.72	720.88
644.06	678.76
644.40	699.82
644.75	690.46
645.09	697.48
645.43	692.80
645.78	716.20
646.12	723.23
646.46	711.52
646.81	688.12
647.15	678.76
647.49	681.10
647.84	713.86
648.18	702.16
648.52	695.14
648.87	716.20
649.21	739.61
649.55	784.08
649.89	662.37
650.24	821.53
650.58	746.63
650.92	800.46
651.26	812.17
651.61	770.04
651.95	828.55
652.29	767.70
652.63	734.93
652.98	800.46
653.32	739.61
653.66	793.44
654.00	713.86
654.35	739.61
654.69	692.80
655.03	713.86
655.37	650.67
655.71	655.35
656.06	624.92
656.40	725.57
656.74	713.86
657.08	702.16
657.42	643.65
657.76	620.24
658.11	713.86
658.45	699.82
658.79	681.10
659.13	727.91
659.47	725.57
659.81	711.52
660.16	638.97
660.50	692.80
660.84	638.97
661.18	781.74
661.52	730.25
661.86	706.84
662.20	727.91
662.55	734.93
662.89	688.12
663.23	786.42
663.57	770.04
663.91	711.52
664.25	676.41
664.59	671.73
664.93	685.78
665.27	702.16
665.61	716.20
665.95	704.50
666.30	648.33
666.64	704.50
666.98	695.14
667.32	704.50
667.66	734.93
668.00	660.03
668.34	664.71
668.68	704.50
669.02	704.50
669.36	695.14
669.70	690.46
670.04	697.48
670.38	657.69
670.72	669.39
671.06	751.31
671.40	692.80
671.74	695.14
672.08	704.50
672.42	660.03
672.76	664.71
673.10	730.25
673.44	669.39
673.78	692.80
674.12	620.24
674.46	631.94
674.80	653.01
675.14	669.39
675.48	655.35
675.82	664.71
676.16	634.29
676.50	699.82
676.84	655.35
677.18	645.99
677.52	655.35
677.85	580.45
678.19	706.84
678.53	681.10
678.87	617.90
679.21	650.67
679.55	650.67
679.89	716.20
680.23	706.84
680.57	704.50
680.91	641.31
681.25	674.07
681.58	662.37
681.92	638.97
682.26	697.48
682.60	676.41
682.94	641.31
683.28	620.24
683.62	678.76
683.95	709.18
684.29	669.39
684.63	648.33
684.97	655.35
685.31	723.23
685.65	667.05
685.98	758.33
686.32	734.93
686.66	650.67
687.00	671.73
687.34	704.50
687.68	709.18
688.01	727.91
688.35	711.52
688.69	744.29
689.03	718.54
689.36	704.50
689.70	695.14
690.04	645.99
690.38	645.99
690.72	660.03
691.05	636.63
691.39	671.73
691.73	671.73
692.07	664.71
692.40	638.97
692.74	650.67
693.08	657.69
693.42	681.10
693.75	702.16
694.09	650.67
694.43	587.47
694.76	676.41
695.10	713.86
695.44	634.29
695.77	669.39
696.11	720.88
696.45	631.94
696.79	674.07
697.12	650.67
697.46	657.69
697.80	662.37
698.13	627.26
698.47	657.69
698.81	624.92
699.14	692.80
699.48	671.73
699.82	603.86
700.15	634.29
700.49	688.12
700.82	627.26
701.16	655.35
701.50	699.82
701.83	681.10
702.17	657.69
702.51	683.44
702.84	634.29
703.18	594.50
703.51	610.88
703.85	723.23
704.19	681.10
704.52	678.76
704.86	669.39
705.19	662.37
705.53	688.12
705.86	697.48
706.20	751.31
706.54	739.61
706.87	774.72
707.21	821.53
707.54	748.97
707.88	833.23
708.21	830.89
708.55	807.48
708.88	774.72
709.22	798.12
709.55	856.64
709.89	779.40
710.22	784.08
710.56	737.27
710.89	709.18
711.23	699.82
711.56	676.41
711.90	781.74
712.23	767.70
712.57	807.48
712.90	781.74
713.24	777.06
713.57	685.78
713.91	713.86
714.24	664.71
714.58	763.01
714.91	704.50
715.25	622.58
715.58	606.20
715.91	655.35
716.25	667.05
716.58	690.46
716.92	624.92
717.25	676.41
717.59	594.50
717.92	617.90
718.25	667.05
718.59	622.58
718.92	653.01
719.26	655.35
719.59	631.94
719.92	610.88
720.26	681.10
720.59	559.39
720.92	601.52
721.26	599.18
721.59	573.43
721.93	655.35
722.26	683.44
722.59	603.86
722.93	634.29
723.26	648.33
723.59	648.33
723.93	617.90
724.26	669.39
724.59	634.29
724.93	575.77
725.26	662.37
725.59	711.52
725.92	599.18
726.26	641.31
726.59	669.39
726.92	610.88
727.26	634.29
727.59	564.07
727.92	645.99
728.25	648.33
728.59	653.01
728.92	638.97
729.25	634.29
729.59	617.90
729.92	608.54
730.25	706.84
730.58	634.29
730.91	650.67
731.25	704.50
731.58	624.92
731.91	648.33
732.24	699.82
732.58	606.20
732.91	674.07
733.24	681.10
733.57	650.67
733.90	669.39
734.24	702.16
734.57	681.10
734.90	627.26
735.23	627.26
735.56	660.03
735.89	716.20
736.23	706.84
736.56	697.48
736.89	676.41
737.22	718.54
737.55	669.39
737.88	641.31
738.22	603.86
738.55	620.24
738.88	648.33
739.21	681.10
739.54	631.94
739.87	599.18
740.20	606.20
740.53	638.97
740.86	699.82
741.20	606.20
741.53	634.29
741.86	685.78
742.19	688.12
742.52	697.48
742.85	622.58
743.18	784.08
743.51	613.22
743.84	657.69
744.17	601.52
744.50	685.78
744.83	575.77
745.16	697.48
745.49	660.03
745.82	603.86
746.16	669.39
746.49	594.50
746.82	631.94
747.15	610.88
747.48	667.05
747.81	657.69
748.14	660.03
748.47	634.29
748.80	617.90
749.13	643.65
749.46	634.29
749.79	660.03
750.12	620.24
750.44	580.45
750.77	617.90
751.10	664.71
751.43	585.13
751.76	645.99
752.09	643.65
752.42	631.94
752.75	662.37
753.08	617.90
753.41	622.58
753.74	615.56
754.07	624.92
754.40	620.24
754.73	634.29
755.06	676.41
755.39	660.03
755.71	653.01
756.04	706.84
756.37	603.86
756.70	580.45
757.03	528.96
757.36	681.10
757.69	650.67
758.02	613.22
758.34	655.35
758.67	667.05
759.00	667.05
759.33	603.86
759.66	620.24
759.99	667.05
760.31	624.92
760.64	657.69
760.97	629.60
761.30	615.56
761.63	641.31
761.96	610.88
762.28	629.60
762.61	629.60
762.94	641.31
763.27	655.35
763.60	620.24
763.92	620.24
764.25	664.71
764.58	603.86
764.91	596.84
765.23	648.33
765.56	664.71
765.89	617.90
766.22	667.05
766.54	617.90
766.87	671.73
767.20	645.99
767.53	608.54
767.85	650.67
768.18	622.58
768.51	629.60
768.84	631.94
769.16	662.37
769.49	617.90
769.82	603.86
770.14	613.22
770.47	608.54
770.80	676.41
771.12	704.50
771.45	617.90
771.78	690.46
772.10	592.16
772.43	645.99
772.76	643.65
773.08	610.88
773.41	631.94
773.74	634.29
774.06	620.24
774.39	669.39
774.72	596.84
775.04	585.13
775.37	655.35
775.70	718.54
776.02	627.26
776.35	629.60
776.67	641.31
777.00	657.69
777.33	674.07
777.65	592.16
777.98	636.63
778.30	648.33
778.63	582.79
778.95	634.29
779.28	624.92
779.61	671.73
779.93	660.03
780.26	627.26
780.58	678.76
780.91	610.88
781.23	603.86
781.56	669.39
781.88	631.94
782.21	631.94
782.53	699.82
782.86	629.60
783.18	681.10
783.51	638.97
783.83	678.76
784.16	554.71
784.48	610.88
784.81	617.90
785.13	655.35
785.46	699.82
785.78	599.18
786.11	573.43
786.43	662.37
786.76	664.71
787.08	587.47
787.41	620.24
787.73	660.03
788.06	662.37
788.38	669.39
788.70	648.33
789.03	634.29
789.35	599.18
789.68	690.46
790.00	638.97
790.33	645.99
790.65	664.71
790.97	615.56
791.30	596.84
791.62	648.33
791.94	699.82
792.27	575.77
792.59	599.18
792.92	608.54
793.24	648.33
793.56	734.93
793.89	629.60
794.21	655.35
794.53	704.50
